17 !No of Header lines including this one    
c           
c spectral base: SPECTRA bands       
c           
c It contains soil single scattering albedo values (Omega)   
c           
c -99. in parameter b means that Hapke and soil moisture model should not be applied
c then file contains Lambertian reflectances      
c           
c in each column the parameters for a soil code is stored
c Soil code 1=Lt, 2=Lu, 3=L, 4=Ls, 5=Ls,    
c 6=Sl, 7=Sl, 8=S, 9=rock, 10=moor      
c           
c Code 30= litter used as background for meadows   
c Code 31= forest understorey
c Code 90= Lambertian version of soil code 1       
c           
22 201 !No. of soils, no of bands 		
1	2	3	4	5	6	7	8	9	10	30	31	72	73	74	75	76	77	78	79	80	90	!soil code
0.84	0.84	0.84	0.84	0.84	0.84	0.84	0.84	0.84	0.84	-99	-99	-99	-99	-99	-99	-99	-99	-99	-99	-99	-99	!b	
0.68	0.68	0.68	0.68	0.68	0.68	0.68	0.68	0.68	0.68	0.68	0.68	0.68	0.68	0.68	0.68	0.68	0.68	0.68	0.68	0.68	0.68	!c	
0.3	0.3	0.3	0.3	0.3	0.3	0.3	0.3	0.3	0.3	0.3	0.3	0.3	0.3	0.3	0.3	0.3	0.3	0.3	0.3	0.3	0.3	!B0	
0.23	0.23	0.23	0.23	0.23	0.23	0.23	0.23	0.23	0.23	0.23	0.23	0.23	0.23	0.23	0.23	0.23	0.23	0.23	0.23	0.23	0.23	!h	
0.21324	0.15476	0.16144	0.18939	0.25742	0.21371	0.32102	0.16912	0.31030	0.18178	0.03990	0.03170	0.02271	0.00319	0.01328	0.03421	0.00383	0.03194	0.00051	0.03690	0.00442	0.07400		
0.21772	0.15922	0.16636	0.19406	0.26129	0.21693	0.32311	0.17277	0.31307	0.18659	0.04020	0.03190	0.02663	0.00340	0.01353	0.03618	0.00470	0.03246	0.00063	0.03752	0.00484	0.07600		
0.22567	0.16713	0.17509	0.20233	0.26816	0.22298	0.32682	0.17925	0.31798	0.19512	0.04120	0.03440	0.03056	0.00360	0.01379	0.03814	0.00557	0.03297	0.00076	0.03813	0.00527	0.07900		
0.23628	0.17751	0.18654	0.21317	0.27716	0.23092	0.33170	0.18776	0.32442	0.20630	0.04220	0.04060	0.03448	0.00380	0.01405	0.04011	0.00644	0.03349	0.00089	0.03874	0.00569	0.08300		
0.25089	0.19208	0.20259	0.22839	0.28963	0.24208	0.33857	0.19972	0.33348	0.22198	0.04380	0.04830	0.03841	0.00400	0.01431	0.04208	0.00731	0.03401	0.00101	0.03936	0.00612	0.08800		
0.26420	0.20538	0.21721	0.24243	0.30116	0.25227	0.34486	0.21065	0.34175	0.23627	0.04620	0.05650	0.04234	0.00420	0.01457	0.04404	0.00818	0.03452	0.00114	0.03997	0.00654	0.09300		
0.27262	0.21381	0.22648	0.25120	0.30846	0.25873	0.34886	0.21759	0.34701	0.24531	0.04760	0.06350	0.04626	0.00441	0.01483	0.04601	0.00905	0.03504	0.00126	0.04059	0.00697	0.09700		
0.27939	0.22058	0.23392	0.25825	0.31433	0.26394	0.35207	0.22317	0.35123	0.25258	0.04860	0.06720	0.05019	0.00461	0.01508	0.04798	0.00992	0.03599	0.00151	0.04181	0.00782	0.09900		
0.28831	0.22952	0.24372	0.26753	0.32207	0.27080	0.35632	0.23053	0.35680	0.26215	0.05000	0.06930	0.05411	0.00481	0.01534	0.04995	0.01079	0.03607	0.00152	0.04181	0.00782	0.10300		
0.30132	0.24256	0.25803	0.28107	0.33336	0.28083	0.36255	0.24130	0.36495	0.27629	0.05210	0.07200	0.05760	0.00553	0.01771	0.05164	0.01177	0.03739	0.00206	0.04452	0.00935	0.10800		
0.31703	0.25835	0.27530	0.29743	0.34701	0.29299	0.37010	0.25436	0.37483	0.29313	0.05620	0.07640	0.06109	0.00624	0.02007	0.05333	0.01276	0.03871	0.00260	0.04723	0.01089	0.11400		
0.33263	0.27404	0.29246	0.31368	0.36057	0.30510	0.37751	0.26737	0.38450	0.30985	0.06330	0.08340	0.06458	0.00696	0.02244	0.05502	0.01374	0.04004	0.00314	0.04994	0.01243	0.12000
0.34842	0.28996	0.30983	0.33013	0.37431	0.31741	0.38524	0.28060	0.39454	0.32678	0.07110	0.09090	0.06807	0.00767	0.02480	0.05672	0.01472	0.04136	0.00368	0.05265	0.01396	0.12700
0.36212	0.30380	0.32490	0.34440	0.38624	0.32813	0.39198	0.29212	0.40327	0.34145	0.07590	0.09590	0.07156	0.00839	0.02717	0.05841	0.01570	0.04268	0.00422	0.05535	0.01550	0.13300
0.36927	0.31102	0.33276	0.35184	0.39247	0.33374	0.39552	0.29815	0.40784	0.34911	0.07950	0.09970	0.07505	0.00910	0.02953	0.06010	0.01668	0.04400	0.00477	0.05806	0.01704	0.13600
0.37892	0.32079	0.34354	0.36190	0.40089	0.34133	0.40031	0.30631	0.41403	0.35945	0.08260	0.10310	0.07854	0.00982	0.03190	0.06179	0.01767	0.04532	0.00531	0.06077	0.01857	0.14000
0.39380	0.33588	0.35989	0.37740	0.41388	0.35307	0.40763	0.31894	0.42360	0.37539	0.08390	0.10520	0.08203	0.01054	0.03426	0.06348	0.01865	0.04664	0.00585	0.06348	0.02011	0.14600
0.40821	0.35051	0.37571	0.39242	0.42632	0.36449	0.41484	0.33122	0.43291	0.39082	0.08390	0.10620	0.08552	0.01125	0.03663	0.06518	0.01963	0.04796	0.00639	0.06619	0.02165	0.15200
0.42117	0.36369	0.38994	0.40591	0.43767	0.37479	0.42173	0.34231	0.44132	0.40469	0.08400	0.10750	0.08290	0.01083	0.03496	0.06070	0.01843	0.04473	0.00668	0.06257	0.02218	0.15800
0.43379	0.37642	0.40365	0.41892	0.44863	0.38477	0.42799	0.35304	0.44933	0.41805	0.08480	0.10930	0.08029	0.01040	0.03329	0.05623	0.01723	0.04150	0.00697	0.05895	0.02272	0.16400
0.44497	0.38786	0.41594	0.43059	0.45847	0.39375	0.43378	0.36271	0.45670	0.43003	0.08550	0.11120	0.07767	0.00998	0.03162	0.05176	0.01602	0.03827	0.00726	0.05534	0.02325	0.16900
0.45464	0.39793	0.42658	0.44084	0.46699	0.40156	0.43864	0.37111	0.46310	0.44055	0.08480	0.11210	0.07505	0.00956	0.02995	0.04728	0.01482	0.03504	0.00755	0.05172	0.02379	0.17400
0.46345	0.40696	0.43627	0.45003	0.47476	0.40869	0.44323	0.37879	0.46879	0.44997	0.08460	0.11350	0.07244	0.00913	0.02828	0.04281	0.01362	0.03180	0.00784	0.04811	0.02432	0.17800
0.47229	0.41603	0.44599	0.45924	0.48256	0.41587	0.44785	0.38652	0.47478	0.45942	0.08560	0.11600	0.06982	0.00871	0.02661	0.03834	0.01241	0.02857	0.00813	0.04449	0.02486	0.18200
0.48020	0.42405	0.45457	0.46737	0.48946	0.42223	0.45195	0.39337	0.48019	0.46776	0.08390	0.11650	0.06721	0.00828	0.02494	0.03386	0.01121	0.02534	0.00841	0.04088	0.02539	0.18600
0.48838	0.43237	0.46346	0.47581	0.49661	0.42884	0.45623	0.40049	0.48557	0.47641	0.07960	0.11530	0.06459	0.00786	0.02327	0.02939	0.01001	0.02211	0.00870	0.03726	0.02593	0.19000
0.49694	0.44143	0.47313	0.48498	0.50440	0.43606	0.46090	0.40826	0.49138	0.48581	0.07330	0.11250	0.06197	0.00744	0.02160	0.02492	0.00881	0.01888	0.00899	0.03365	0.02646	0.19400
0.50519	0.45001	0.48243	0.49365	0.51177	0.44291	0.46535	0.41563	0.49700	0.49469	0.06950	0.11170	0.06008	0.00735	0.02084	0.02417	0.00876	0.01879	0.00912	0.03247	0.02643	0.19800
0.51386	0.45883	0.49178	0.50255	0.51935	0.44996	0.46995	0.42323	0.50278	0.50380	0.07180	0.11580	0.05818	0.00727	0.02007	0.02342	0.00871	0.01869	0.00925	0.03130	0.02641	0.20200
0.52251	0.46777	0.50125	0.51156	0.52702	0.45713	0.47463	0.43095	0.50865	0.51303	0.08840	0.13080	0.05628	0.00718	0.01931	0.02267	0.00866	0.01860	0.00938	0.03013	0.02638	0.20700
0.52978	0.47529	0.50920	0.51913	0.53348	0.46317	0.47858	0.43745	0.51361	0.52077	0.12650	0.15910	0.05438	0.00710	0.01855	0.02192	0.00862	0.01850	0.00951	0.02896	0.02635	0.21000
0.53766	0.48345	0.51782	0.52733	0.54034	0.46974	0.48289	0.44469	0.51900	0.52932	0.16830	0.18620	0.05248	0.00701	0.01779	0.02117	0.00857	0.01841	0.00964	0.02778	0.02633	0.21400
0.54652	0.49265	0.52751	0.53655	0.54824	0.47717	0.48778	0.45267	0.52508	0.53872	0.20280	0.20510	0.05058	0.00693	0.01702	0.02042	0.00852	0.01831	0.00977	0.02661	0.02630	0.21900
0.55407	0.50048	0.53575	0.54455	0.55498	0.48351	0.49196	0.45949	0.53029	0.54672	0.23160	0.21840	0.04868	0.00684	0.01626	0.01967	0.00847	0.01821	0.00990	0.02544	0.02627	0.22300
0.56129	0.50799	0.54364	0.55203	0.56143	0.48960	0.49600	0.46604	0.53529	0.55437	0.25510	0.22770	0.04678	0.00676	0.01550	0.01892	0.00843	0.01812	0.01003	0.02426	0.02624	0.22700
0.56896	0.51598	0.55201	0.55998	0.56829	0.49610	0.50030	0.47302	0.54062	0.56249	0.27490	0.23530	0.04488	0.00668	0.01474	0.01817	0.00838	0.01802	0.01016	0.02309	0.02622	0.23100
0.57614	0.52346	0.55984	0.56742	0.57471	0.50220	0.50436	0.47958	0.54563	0.57024	0.29210	0.24200	0.04299	0.00659	0.01397	0.01741	0.00833	0.01793	0.01029	0.02192	0.02619	0.23500
0.58225	0.52983	0.56649	0.57375	0.58018	0.50741	0.50784	0.48518	0.54991	0.57660	0.30580	0.24580	0.04109	0.00651	0.01321	0.01666	0.00828	0.01783	0.01042	0.02074	0.02616	0.23900
0.58796	0.53579	0.57271	0.57967	0.58530	0.51230	0.51111	0.49043	0.55392	0.58256	0.32040	0.25000	0.03919	0.00642	0.01245	0.01591	0.00824	0.01774	0.01054	0.01957	0.02614	0.24200
0.59263	0.54068	0.57795	0.58451	0.58950	0.51631	0.51379	0.49475	0.55722	0.58744	0.33470	0.25420	0.03729	0.00634	0.01169	0.01516	0.00819	0.01764	0.01067	0.01840	0.02611	0.24500
0.59751	0.54593	0.58325	0.58957	0.59388	0.52051	0.51661	0.49926	0.56067	0.59271	0.34870	0.25810	0.03539	0.00625	0.01092	0.01441	0.00814	0.01755	0.01080	0.01722	0.02608	0.24700
0.60204	0.55066	0.58816	0.59441	0.59795	0.52442	0.51924	0.50346	0.56388	0.59749	0.36260	0.26180	0.03349	0.00617	0.01016	0.01366	0.00810	0.01745	0.01093	0.01605	0.02605	0.25000
0.60687	0.55572	0.59340	0.59937	0.60230	0.52860	0.52206	0.50795	0.56733	0.60260	0.37650	0.26640	0.03159	0.00608	0.00940	0.01291	0.00805	0.01736	0.01106	0.01488	0.02603	0.25300
0.61049	0.55951	0.59732	0.60308	0.60555	0.53174	0.52418	0.51133	0.56991	0.60643	0.38900	0.27060	0.02969	0.00600	0.00864	0.01216	0.00800	0.01726	0.01119	0.01371	0.02600	0.25500
0.61276	0.56189	0.59979	0.60541	0.60760	0.53372	0.52552	0.51345	0.57154	0.60883	0.40100	0.27430	0.02951	0.00596	0.00856	0.01208	0.00796	0.01714	0.01111	0.01359	0.02594	0.25600
0.61585	0.56512	0.60313	0.60856	0.61038	0.53641	0.52734	0.51634	0.57375	0.61209	0.41280	0.27770	0.02933	0.00593	0.00848	0.01199	0.00791	0.01702	0.01103	0.01348	0.02588	0.25800
0.61967	0.56914	0.60728	0.61251	0.61383	0.53975	0.52960	0.51993	0.57650	0.61614	0.42420	0.28150	0.02914	0.00589	0.00841	0.01190	0.00787	0.01690	0.01095	0.01336	0.02582	0.26100
0.62257	0.57218	0.61042	0.61549	0.61645	0.54228	0.53132	0.52265	0.57859	0.61920	0.43480	0.28560	0.02896	0.00585	0.00833	0.01182	0.00782	0.01678	0.01087	0.01325	0.02575	0.26200
0.62527	0.57502	0.61334	0.61827	0.61875	0.54465	0.53293	0.52519	0.58054	0.62205	0.44480	0.28980	0.02878	0.00582	0.00826	0.01173	0.00778	0.01666	0.01079	0.01314	0.02569	0.26400
0.62853	0.57844	0.61688	0.62162	0.62171	0.54751	0.53488	0.52827	0.58290	0.62549	0.45420	0.29400	0.02859	0.00578	0.00818	0.01164	0.00773	0.01654	0.01071	0.01302	0.02563	0.26600
0.63316	0.58331	0.62189	0.62638	0.62591	0.55158	0.53766	0.53264	0.58625	0.63038	0.46350	0.29940	0.02841	0.00574	0.00811	0.01155	0.00769	0.01641	0.01063	0.01291	0.02557	0.26900
0.63725	0.58762	0.62632	0.63077	0.62964	0.55519	0.54013	0.53652	0.58924	0.63470	0.47140	0.30450	0.02822	0.00571	0.00803	0.01147	0.00764	0.01629	0.01054	0.01279	0.02551	0.27200
0.64118	0.59176	0.63057	0.63484	0.63321	0.55882	0.54251	0.54025	0.59210	0.63884	0.47800	0.30680	0.02804	0.00567	0.00796	0.01138	0.00760	0.01617	0.01046	0.01268	0.02545	0.27400
0.64499	0.59578	0.63481	0.63879	0.63668	0.56220	0.54483	0.54389	0.59490	0.64286	0.48620	0.30950	0.02786	0.00563	0.00788	0.01129	0.00755	0.01605	0.01038	0.01257	0.02539	0.27600
0.64784	0.59879	0.63786	0.64174	0.63927	0.56473	0.54657	0.54661	0.59699	0.64586	0.49280	0.30970	0.02767	0.00560	0.00781	0.01121	0.00751	0.01593	0.01030	0.01245	0.02532	0.27800
0.65130	0.60245	0.64156	0.64533	0.64242	0.56780	0.54870	0.54992	0.59954	0.64951	0.49720	0.30870	0.02749	0.00556	0.00773	0.01112	0.00746	0.01581	0.01022	0.01234	0.02526	0.28100
0.65583	0.60725	0.64634	0.65003	0.64656	0.57185	0.55150	0.55428	0.60290	0.65429	0.50150	0.30740	0.02731	0.00552	0.00766	0.01103	0.00742	0.01569	0.01014	0.01222	0.02520	0.28300
0.65927	0.61089	0.65012	0.65359	0.64960	0.57492	0.55363	0.55759	0.60545	0.65791	0.50620	0.30630	0.02712	0.00548	0.00758	0.01094	0.00737	0.01557	0.01006	0.01211	0.02514	0.28600
0.66131	0.61306	0.65232	0.65571	0.65154	0.57676	0.55490	0.55956	0.60697	0.66006	0.51170	0.30570	0.02694	0.00545	0.00750	0.01086	0.00733	0.01545	0.00998	0.01200	0.02508	0.28700
0.66452	0.61646	0.65576	0.65903	0.65459	0.57964	0.55691	0.56281	0.60936	0.66343	0.51790	0.30540	0.02676	0.00541	0.00743	0.01077	0.00728	0.01533	0.00990	0.01188	0.02502	0.28900
0.66869	0.62088	0.66025	0.66335	0.65830	0.58339	0.55968	0.56683	0.61248	0.66782	0.52500	0.30560	0.02657	0.00537	0.00735	0.01068	0.00724	0.01521	0.00982	0.01177	0.02496	0.29200
0.67247	0.62491	0.66432	0.66727	0.66176	0.58681	0.56206	0.57050	0.61532	0.67180	0.53190	0.30580	0.02639	0.00534	0.00728	0.01060	0.00719	0.01508	0.00974	0.01165	0.02489	0.29500
0.67544	0.62807	0.66752	0.67035	0.66448	0.58951	0.56394	0.57339	0.61756	0.67492	0.53710	0.30580	0.02620	0.00530	0.00720	0.01051	0.00715	0.01496	0.00966	0.01154	0.02483	0.29700
0.67870	0.63169	0.67105	0.67373	0.66747	0.59248	0.56601	0.57657	0.62003	0.67836	0.54300	0.30580	0.02602	0.00526	0.00713	0.01042	0.00710	0.01484	0.00957	0.01143	0.02477	0.29900
0.68064	0.63374	0.67314	0.67573	0.66925	0.59424	0.56724	0.57846	0.62149	0.68039	0.54650	0.30550	0.02584	0.00523	0.00705	0.01033	0.00706	0.01472	0.00949	0.01131	0.02471	0.30000
0.68295	0.63619	0.67563	0.67812	0.67136	0.59635	0.56872	0.58072	0.62325	0.68282	0.54850	0.30500	0.02565	0.00519	0.00698	0.01025	0.00701	0.01460	0.00941	0.01120	0.02465	0.30200
0.68806	0.64162	0.68115	0.68342	0.67605	0.60103	0.57200	0.58574	0.62714	0.68818	0.54910	0.30260	0.02547	0.00515	0.00690	0.01016	0.00697	0.01448	0.00933	0.01108	0.02459	0.30500
0.69321	0.64710	0.68673	0.68862	0.68078	0.60577	0.57534	0.59082	0.63123	0.69359	0.54670	0.29230	0.02529	0.00512	0.00683	0.01007	0.00692	0.01436	0.00925	0.01097	0.02453	0.30900
0.69641	0.65051	0.69020	0.69197	0.68373	0.60873	0.57743	0.59399	0.63368	0.69694	0.54340	0.28220	0.02510	0.00508	0.00675	0.00999	0.00688	0.01424	0.00917	0.01086	0.02446	0.31200
0.69884	0.65323	0.69295	0.69462	0.68606	0.61108	0.57909	0.59651	0.63562	0.69950	0.54080	0.27450	0.02492	0.00504	0.00667	0.00990	0.00683	0.01412	0.00909	0.01074	0.02440	0.31300
0.70144	0.65596	0.69573	0.69730	0.68842	0.61345	0.58077	0.59905	0.63759	0.70222	0.53980	0.27050	0.02474	0.00501	0.00660	0.00981	0.00679	0.01400	0.00901	0.01063	0.02434	0.31500
0.70383	0.65848	0.69828	0.69975	0.69058	0.61564	0.58232	0.60140	0.63940	0.70473	0.54020	0.27030	0.02455	0.00497	0.00652	0.00972	0.00674	0.01388	0.00893	0.01052	0.02428	0.31700
0.70622	0.66099	0.70083	0.70221	0.69274	0.61783	0.58388	0.60374	0.64121	0.70723	0.54130	0.27070	0.02437	0.00493	0.00645	0.00964	0.00670	0.01376	0.00885	0.01040	0.02422	0.31900
0.70919	0.66411	0.70399	0.70526	0.69543	0.62068	0.58582	0.60665	0.64347	0.71034	0.54030	0.26930	0.02418	0.00489	0.00637	0.00955	0.00666	0.01363	0.00877	0.01029	0.02416	0.32100
0.71166	0.66692	0.70677	0.70794	0.69779	0.62305	0.58752	0.60922	0.64546	0.71292	0.53670	0.26540	0.02400	0.00486	0.00630	0.00946	0.00661	0.01351	0.00869	0.01017	0.02410	0.32300
0.71328	0.66858	0.70854	0.70964	0.69929	0.62455	0.58861	0.61099	0.64673	0.71462	0.53240	0.26070	0.02382	0.00482	0.00622	0.00938	0.00657	0.01339	0.00861	0.01006	0.02403	0.32400
0.71616	0.67170	0.71169	0.71252	0.70195	0.62725	0.59056	0.61387	0.64907	0.71763	0.53120	0.26060	0.02363	0.00478	0.00615	0.00929	0.00652	0.01327	0.00852	0.00995	0.02397	0.32600
0.72023	0.67609	0.71593	0.71674	0.70572	0.63116	0.59332	0.61794	0.65219	0.72189	0.52820	0.25380	0.02345	0.00475	0.00607	0.00920	0.00648	0.01315	0.00844	0.00983	0.02391	0.32900
0.72323	0.67934	0.71916	0.71984	0.70850	0.63388	0.59547	0.62099	0.65456	0.72502	0.52440	0.24500	0.02327	0.00471	0.00600	0.00911	0.00643	0.01303	0.00836	0.00972	0.02385	0.33200
0.72541	0.68169	0.72150	0.72209	0.71052	0.63593	0.59692	0.62314	0.65629	0.72729	0.52410	0.24360	0.02308	0.00467	0.00592	0.00903	0.00639	0.01291	0.00828	0.00960	0.02379	0.33300
0.72702	0.68344	0.72323	0.72376	0.71202	0.63746	0.59800	0.62477	0.65757	0.72898	0.52490	0.24460	0.02290	0.00464	0.00585	0.00894	0.00634	0.01279	0.00820	0.00949	0.02373	0.33500
0.72755	0.68401	0.72379	0.72430	0.71250	0.63795	0.59848	0.62530	0.65799	0.72952	0.52620	0.24670	0.02272	0.00460	0.00577	0.00885	0.00630	0.01267	0.00812	0.00938	0.02367	0.33500
0.72913	0.68572	0.72549	0.72594	0.71397	0.63945	0.59930	0.62690	0.65925	0.73117	0.52940	0.25210	0.02253	0.00456	0.00569	0.00877	0.00625	0.01255	0.00804	0.00926	0.02360	0.33600
0.73239	0.68927	0.72900	0.72932	0.71701	0.64256	0.60162	0.63022	0.66187	0.73458	0.53300	0.25740	0.02235	0.00453	0.00562	0.00868	0.00621	0.01243	0.00796	0.00915	0.02354	0.33900
0.73544	0.69259	0.73227	0.73247	0.71999	0.64548	0.60369	0.63333	0.66432	0.73775	0.53590	0.26110	0.02216	0.00449	0.00554	0.00859	0.00616	0.01231	0.00788	0.00903	0.02348	0.34200
0.73757	0.69491	0.73455	0.73467	0.72198	0.64752	0.60532	0.63567	0.66604	0.73997	0.53840	0.26450	0.02198	0.00445	0.00547	0.00850	0.00612	0.01218	0.00780	0.00892	0.02342	0.34300
0.73965	0.69718	0.73678	0.73682	0.72394	0.64967	0.60679	0.63782	0.66773	0.74213	0.53910	0.26440	0.02180	0.00442	0.00539	0.00842	0.00607	0.01206	0.00772	0.00881	0.02336	0.34500
0.74141	0.69910	0.73867	0.73865	0.72560	0.65138	0.60804	0.63965	0.66916	0.74397	0.54040	0.26600	0.02161	0.00438	0.00532	0.00833	0.00603	0.01194	0.00764	0.00869	0.02330	0.34600
0.74267	0.70048	0.74002	0.73995	0.72678	0.65261	0.60893	0.64096	0.67019	0.74528	0.54270	0.27130	0.02143	0.00434	0.00524	0.00824	0.00598	0.01182	0.00755	0.00858	0.02323	0.34800
0.74394	0.70187	0.74138	0.74126	0.72798	0.65385	0.60984	0.64229	0.67123	0.74660	0.54330	0.27360	0.02125	0.00431	0.00517	0.00816	0.00594	0.01170	0.00747	0.00846	0.02317	0.34900
0.74548	0.70356	0.74303	0.74285	0.72943	0.65535	0.61094	0.64389	0.67249	0.74833	0.54270	0.27350	0.02106	0.00427	0.00509	0.00807	0.00589	0.01158	0.00739	0.00835	0.02311	0.35000
0.74673	0.70492	0.74436	0.74414	0.73061	0.65656	0.61183	0.64520	0.67351	0.74963	0.54200	0.27430	0.02088	0.00423	0.00502	0.00798	0.00585	0.01146	0.00731	0.00824	0.02305	0.35100
0.74755	0.70582	0.74524	0.74499	0.73139	0.65737	0.61242	0.64606	0.67419	0.75049	0.54100	0.27480	0.02070	0.00419	0.00494	0.00789	0.00580	0.01134	0.00723	0.00812	0.02299	0.35200
0.74861	0.70699	0.74638	0.74609	0.73240	0.65841	0.61319	0.64717	0.67507	0.75161	0.53850	0.27400	0.02051	0.00416	0.00486	0.00781	0.00576	0.01122	0.00715	0.00801	0.02293	0.35300
0.74990	0.70840	0.74775	0.74742	0.73361	0.65967	0.61412	0.64852	0.67613	0.75295	0.53150	0.26910	0.02033	0.00412	0.00479	0.00772	0.00571	0.01110	0.00707	0.00789	0.02287	0.35400
0.75165	0.71017	0.74947	0.74908	0.73514	0.66126	0.61528	0.65022	0.67746	0.75464	0.52330	0.26260	0.02014	0.00408	0.00471	0.00763	0.00567	0.01098	0.00699	0.00778	0.02280	0.35500
0.75263	0.71125	0.75052	0.75009	0.73607	0.66222	0.61599	0.65125	0.67828	0.75567	0.51450	0.25470	0.01996	0.00405	0.00464	0.00755	0.00562	0.01086	0.00691	0.00767	0.02274	0.35600
0.75238	0.71097	0.75025	0.74983	0.73582	0.66197	0.61581	0.65098	0.67806	0.75540	0.50590	0.24700	0.01978	0.00401	0.00456	0.00746	0.00558	0.01073	0.00683	0.00755	0.02268	0.35600
0.75061	0.70904	0.74837	0.74802	0.73416	0.66025	0.61454	0.64913	0.67661	0.75356	0.49520	0.24070	0.01959	0.00397	0.00449	0.00737	0.00553	0.01061	0.00675	0.00744	0.02262	0.35400
0.74765	0.70593	0.74535	0.74510	0.73148	0.65747	0.61250	0.64616	0.67427	0.75060	0.47210	0.22990	0.01941	0.00394	0.00441	0.00728	0.00549	0.01049	0.00667	0.00733	0.02256	0.35200
0.74492	0.70294	0.74242	0.74227	0.72890	0.65480	0.61054	0.64331	0.67203	0.74761	0.43810	0.21350	0.01923	0.00390	0.00434	0.00720	0.00544	0.01037	0.00659	0.00721	0.02250	0.34900
0.74318	0.70104	0.74056	0.74047	0.72726	0.65310	0.60930	0.64149	0.67061	0.74581	0.40610	0.19280	0.01904	0.00386	0.00426	0.00711	0.00540	0.01025	0.00650	0.00710	0.02244	0.34800
0.74420	0.70215	0.74165	0.74153	0.72823	0.65410	0.61002	0.64256	0.67144	0.74687	0.38210	0.17090	0.01886	0.00383	0.00419	0.00702	0.00535	0.01013	0.00642	0.00698	0.02237	0.34900
0.74768	0.70597	0.74538	0.74513	0.73151	0.65750	0.61252	0.64620	0.67430	0.75063	0.36710	0.15320	0.01868	0.00379	0.00411	0.00694	0.00531	0.01001	0.00634	0.00687	0.02231	0.35200
0.75102	0.70949	0.74881	0.74844	0.73454	0.66064	0.61483	0.64956	0.67694	0.75399	0.35990	0.14250	0.01849	0.00375	0.00404	0.00685	0.00526	0.00989	0.00626	0.00676	0.02225	0.35500
0.75313	0.71180	0.75105	0.75061	0.73654	0.66271	0.61635	0.65177	0.67869	0.75619	0.35760	0.13750	0.01831	0.00372	0.00396	0.00676	0.00522	0.00977	0.00618	0.00664	0.02219	0.35600
0.75584	0.71477	0.75407	0.75352	0.73909	0.66537	0.61832	0.65462	0.68093	0.75900	0.35830	0.13540	0.01812	0.00368	0.00388	0.00667	0.00518	0.00965	0.00610	0.00653	0.02213	0.35900
0.75929	0.71854	0.75774	0.75707	0.74234	0.66876	0.62083	0.65824	0.68379	0.76258	0.36240	0.13550	0.01794	0.00364	0.00381	0.00659	0.00513	0.00953	0.00602	0.00641	0.02207	0.36200
0.76184	0.72133	0.76046	0.75970	0.74475	0.67128	0.62269	0.66093	0.68592	0.76523	0.36910	0.13680	0.01776	0.00361	0.00373	0.00650	0.00509	0.00940	0.00594	0.00630	0.02201	0.36400
0.76347	0.72313	0.76220	0.76138	0.74630	0.67290	0.62390	0.66266	0.68729	0.76693	0.37730	0.13800	0.01757	0.00357	0.00366	0.00641	0.00504	0.00928	0.00586	0.00619	0.02194	0.36500
0.76519	0.72488	0.76403	0.76316	0.74793	0.67460	0.62517	0.66448	0.68874	0.76871	0.38630	0.13960	0.01739	0.00353	0.00358	0.00633	0.00500	0.00916	0.00578	0.00607	0.02188	0.36700
0.76635	0.72615	0.76526	0.76435	0.74902	0.67575	0.62603	0.66571	0.68972	0.76991	0.39630	0.14260	0.01721	0.00349	0.00351	0.00624	0.00495	0.00904	0.00570	0.00596	0.02182	0.36800
0.76728	0.72717	0.76626	0.76532	0.74991	0.67668	0.62672	0.66670	0.69051	0.77088	0.40540	0.14580	0.01702	0.00346	0.00343	0.00615	0.00491	0.00892	0.00562	0.00584	0.02176	0.36900
0.76933	0.72940	0.76844	0.76742	0.75185	0.67872	0.62825	0.66888	0.69224	0.77301	0.41380	0.14940	0.01684	0.00342	0.00336	0.00606	0.00486	0.00880	0.00553	0.00573	0.02170	0.37100
0.77192	0.73223	0.77119	0.77009	0.75431	0.68130	0.63018	0.67163	0.69444	0.77569	0.42110	0.15240	0.01666	0.00338	0.00328	0.00598	0.00482	0.00868	0.00545	0.00562	0.02164	0.37300
0.77303	0.73344	0.77237	0.77123	0.75537	0.68241	0.63101	0.67282	0.69539	0.77684	0.42640	0.15390	0.01647	0.00335	0.00321	0.00589	0.00477	0.00856	0.00537	0.00550	0.02158	0.37400
0.77316	0.73358	0.77251	0.77137	0.75549	0.68255	0.63112	0.67296	0.69550	0.77698	0.43140	0.15560	0.01629	0.00331	0.00313	0.00580	0.00473	0.00844	0.00529	0.00539	0.02151	0.37400
0.77428	0.73481	0.77371	0.77253	0.75656	0.68367	0.63196	0.67416	0.69646	0.77814	0.43610	0.15720	0.01610	0.00327	0.00305	0.00572	0.00468	0.00832	0.00521	0.00527	0.02145	0.37500
0.77586	0.73653	0.77538	0.77415	0.75806	0.68525	0.63315	0.67585	0.69781	0.77977	0.44000	0.15830	0.01592	0.00324	0.00298	0.00563	0.00464	0.00820	0.00513	0.00516	0.02139	0.37700
0.77650	0.73723	0.77606	0.77481	0.75867	0.68590	0.63364	0.67654	0.69836	0.78044	0.44400	0.15980	0.01574	0.00320	0.00290	0.00554	0.00459	0.00808	0.00505	0.00505	0.02133	0.37700
0.77619	0.73689	0.77574	0.77449	0.75838	0.68559	0.63340	0.67621	0.69809	0.78011	0.44860	0.16250	0.01555	0.00316	0.00283	0.00545	0.00455	0.00795	0.00497	0.00493	0.02127	0.37700
0.77701	0.73779	0.77661	0.77534	0.75916	0.68641	0.63403	0.67709	0.69880	0.78097	0.45380	0.16610	0.01537	0.00313	0.00275	0.00537	0.00450	0.00783	0.00489	0.00482	0.02121	0.37800
0.77831	0.73921	0.77799	0.77667	0.76040	0.68772	0.63501	0.67848	0.69992	0.78231	0.45860	0.16960	0.01519	0.00309	0.00268	0.00528	0.00446	0.00771	0.00481	0.00470	0.02115	0.37900
0.77928	0.74027	0.77902	0.77768	0.76132	0.68870	0.63575	0.67953	0.70076	0.78332	0.46220	0.17210	0.01500	0.00305	0.00260	0.00519	0.00441	0.00759	0.00473	0.00459	0.02108	0.38000
0.78001	0.74107	0.77979	0.77842	0.76201	0.68943	0.63630	0.68031	0.70138	0.78407	0.46500	0.17390	0.01482	0.00302	0.00253	0.00511	0.00437	0.00747	0.00465	0.00448	0.02102	0.38100
0.77998	0.74103	0.77976	0.77839	0.76198	0.68940	0.63628	0.68027	0.70136	0.78404	0.46610	0.17420	0.01464	0.00298	0.00245	0.00502	0.00432	0.00735	0.00457	0.00436	0.02096	0.38100
0.78065	0.74176	0.78047	0.77908	0.76262	0.69007	0.63679	0.68100	0.70194	0.78460	0.46530	0.17200	0.01445	0.00294	0.00238	0.00493	0.00428	0.00723	0.00448	0.00425	0.02090	0.38100
0.78233	0.74360	0.78226	0.78081	0.76423	0.69177	0.63808	0.68281	0.70339	0.78634	0.46220	0.16730	0.01427	0.00290	0.00230	0.00484	0.00423	0.00711	0.00440	0.00414	0.02084	0.38300
0.78411	0.74556	0.78415	0.78265	0.76594	0.69358	0.63945	0.68474	0.70495	0.78817	0.45730	0.16090	0.01414	0.00289	0.00229	0.00480	0.00419	0.00704	0.00437	0.00411	0.02070	0.38500
0.78515	0.74669	0.78525	0.78372	0.76680	0.69450	0.64026	0.68586	0.70585	0.78924	0.45010	0.15300	0.01402	0.00288	0.00228	0.00476	0.00415	0.00698	0.00433	0.00408	0.02056	0.38600
0.78515	0.74669	0.78525	0.78371	0.76680	0.69450	0.64025	0.68586	0.70585	0.78923	0.44220	0.14530	0.01389	0.00287	0.00226	0.00472	0.00411	0.00691	0.00429	0.00405	0.02043	0.38600
0.78502	0.74655	0.78511	0.78358	0.76668	0.69437	0.64016	0.68572	0.70574	0.78910	0.43560	0.13970	0.01376	0.00286	0.00225	0.00468	0.00407	0.00685	0.00425	0.00402	0.02029	0.38600
0.78508	0.74661	0.78517	0.78364	0.76673	0.69443	0.64020	0.68578	0.70579	0.78916	0.43020	0.13560	0.01364	0.00285	0.00224	0.00464	0.00402	0.00678	0.00421	0.00399	0.02015	0.38600
0.78570	0.74729	0.78583	0.78428	0.76732	0.69506	0.64068	0.68645	0.70633	0.78980	0.42700	0.13380	0.01351	0.00284	0.00223	0.00460	0.00398	0.00672	0.00417	0.00396	0.02001	0.38600
0.78627	0.74791	0.78643	0.78486	0.76786	0.69565	0.64112	0.68707	0.70683	0.79038	0.42740	0.13530	0.01339	0.00283	0.00221	0.00456	0.00394	0.00665	0.00414	0.00393	0.01988	0.38700
0.78675	0.74845	0.78695	0.78536	0.76832	0.69614	0.64149	0.68760	0.70725	0.79088	0.42780	0.13720	0.01326	0.00281	0.00220	0.00452	0.00390	0.00659	0.00410	0.00390	0.01974	0.38700
0.78723	0.74897	0.78746	0.78586	0.76878	0.69664	0.64187	0.68812	0.70768	0.79137	0.42730	0.13830	0.01313	0.00280	0.00219	0.00448	0.00386	0.00652	0.00406	0.00387	0.01960	0.38800
0.78709	0.74881	0.78730	0.78571	0.76864	0.69649	0.64175	0.68796	0.70755	0.79122	0.42790	0.14060	0.01301	0.00279	0.00218	0.00444	0.00381	0.00646	0.00402	0.00385	0.01946	0.38800
0.78771	0.74949	0.78796	0.78635	0.76923	0.69712	0.64223	0.68863	0.70809	0.79186	0.42960	0.14380	0.01288	0.00278	0.00216	0.00440	0.00377	0.00639	0.00398	0.00382	0.01933	0.38800
0.78906	0.75111	0.78940	0.78787	0.77064	0.69865	0.64339	0.69024	0.70939	0.79338	0.43160	0.14690	0.01276	0.00277	0.00215	0.00436	0.00373	0.00633	0.00395	0.00379	0.01919	0.39000
0.79035	0.75253	0.79077	0.78920	0.77188	0.69999	0.64440	0.69165	0.71054	0.79470	0.43390	0.14950	0.01263	0.00276	0.00214	0.00432	0.00369	0.00626	0.00391	0.00376	0.01905	0.39100
0.79005	0.75220	0.79045	0.78889	0.77159	0.69968	0.64416	0.69132	0.71027	0.79440	0.43610	0.15150	0.01250	0.00275	0.00213	0.00428	0.00365	0.00620	0.00387	0.00373	0.01892	0.39100
0.78885	0.75087	0.78918	0.78765	0.77044	0.69843	0.64322	0.69000	0.70920	0.79316	0.43700	0.15330	0.01238	0.00273	0.00211	0.00424	0.00360	0.00613	0.00383	0.00370	0.01878	0.38900
0.78886	0.75089	0.78919	0.78766	0.77045	0.69844	0.64323	0.69002	0.70922	0.79317	0.43750	0.15530	0.01225	0.00272	0.00210	0.00420	0.00356	0.00607	0.00379	0.00367	0.01864	0.38900
0.79063	0.75283	0.79106	0.78949	0.77214	0.70028	0.64462	0.69195	0.71078	0.79499	0.44120	0.15840	0.01213	0.00271	0.00209	0.00416	0.00352	0.00600	0.00375	0.00364	0.01850	0.39100
0.79150	0.75379	0.79198	0.79039	0.77297	0.70118	0.64530	0.69290	0.71142	0.79589	0.43940	0.16000	0.01200	0.00270	0.00208	0.00412	0.00348	0.00594	0.00372	0.00361	0.01837	0.39200
0.78985	0.75197	0.79023	0.78868	0.77139	0.69946	0.64400	0.69110	0.71009	0.79419	0.41720	0.15680	0.01187	0.00269	0.00206	0.00408	0.00344	0.00587	0.00368	0.00358	0.01823	0.39000
0.78642	0.74809	0.78660	0.78503	0.76801	0.69581	0.64124	0.68724	0.70697	0.79054	0.38280	0.14970	0.01175	0.00268	0.00205	0.00405	0.00339	0.00581	0.00364	0.00355	0.01809	0.38700
0.77996	0.74101	0.77974	0.77837	0.76197	0.68938	0.63627	0.68026	0.70134	0.78402	0.35090	0.14190	0.01162	0.00267	0.00204	0.00401	0.00335	0.00574	0.00360	0.00353	0.01795	0.38100
0.77027	0.73043	0.76944	0.76839	0.75275	0.67966	0.62895	0.66988	0.69304	0.77398	0.32520	0.13180	0.01150	0.00266	0.00203	0.00397	0.00331	0.00568	0.00356	0.00350	0.01782	0.37200
0.76139	0.72084	0.75998	0.75924	0.74433	0.67084	0.62237	0.66046	0.68555	0.76476	0.30260	0.11300	0.01137	0.00264	0.00201	0.00393	0.00327	0.00561	0.00353	0.00347	0.01768	0.36400
0.75630	0.71526	0.75455	0.75398	0.73952	0.66582	0.61865	0.65509	0.68131	0.75947	0.28540	0.09640	0.01124	0.00263	0.00200	0.00389	0.00323	0.00555	0.00349	0.00344	0.01754	0.35900
0.75589	0.71482	0.75412	0.75357	0.73914	0.66542	0.61835	0.65467	0.68097	0.75905	0.27380	0.08540	0.01112	0.00262	0.00199	0.00385	0.00319	0.00548	0.00345	0.00341	0.01741	0.35900
0.75674	0.71575	0.75502	0.75444	0.73994	0.66625	0.61897	0.65556	0.68167	0.75993	0.26740	0.07950	0.01099	0.00261	0.00198	0.00381	0.00314	0.00542	0.00341	0.00338	0.01727	0.36000
0.75747	0.71655	0.75580	0.75520	0.74063	0.66697	0.61950	0.65633	0.68228	0.76070	0.26630	0.07840	0.01087	0.00260	0.00196	0.00377	0.00310	0.00535	0.00337	0.00335	0.01713	0.36000
0.75989	0.71920	0.75838	0.75769	0.74292	0.66936	0.62127	0.65888	0.68430	0.76321	0.26760	0.07860	0.01074	0.00259	0.00195	0.00373	0.00306	0.00529	0.00333	0.00332	0.01699	0.36200
0.76370	0.72338	0.76244	0.76161	0.74651	0.67312	0.62406	0.66289	0.68748	0.76716	0.27100	0.08010	0.01061	0.00258	0.00194	0.00369	0.00302	0.00522	0.00330	0.00329	0.01686	0.36600
0.76716	0.72703	0.76613	0.76519	0.74979	0.67656	0.62663	0.66657	0.69040	0.77075	0.27520	0.08210	0.01049	0.00256	0.00192	0.00365	0.00298	0.00516	0.00326	0.00326	0.01672	0.36900
0.76966	0.72976	0.76879	0.76777	0.75217	0.67905	0.62849	0.66923	0.69252	0.77335	0.27940	0.08350	0.01036	0.00255	0.00191	0.00361	0.00293	0.00509	0.00322	0.00324	0.01658	0.37100
0.77158	0.73186	0.77083	0.76974	0.75399	0.68097	0.62993	0.67127	0.69415	0.77534	0.28460	0.08530	0.01024	0.00254	0.00190	0.00357	0.00289	0.00503	0.00318	0.00321	0.01644	0.37300
0.77326	0.73369	0.77262	0.77147	0.75559	0.68265	0.63119	0.67307	0.69559	0.77708	0.28990	0.08670	0.01011	0.00253	0.00189	0.00353	0.00285	0.00496	0.00314	0.00318	0.01631	0.37400
0.77472	0.73528	0.77417	0.77297	0.75697	0.68411	0.63229	0.67463	0.69683	0.77859	0.29320	0.08600	0.00998	0.00252	0.00187	0.00349	0.00281	0.00490	0.00311	0.00315	0.01617	0.37600
0.77606	0.73675	0.77559	0.77435	0.75825	0.68545	0.63330	0.67606	0.69798	0.77998	0.29410	0.08330	0.00986	0.00251	0.00186	0.00345	0.00277	0.00483	0.00307	0.00312	0.01603	0.37700
0.77717	0.73796	0.77677	0.77550	0.75931	0.68657	0.63414	0.67725	0.69893	0.78113	0.29210	0.07890	0.00973	0.00250	0.00185	0.00341	0.00272	0.00476	0.00303	0.00309	0.01589	0.37800
0.77820	0.73909	0.77787	0.77656	0.76029	0.68761	0.63493	0.67836	0.69982	0.78220	0.28810	0.07380	0.00961	0.00249	0.00184	0.00337	0.00268	0.00470	0.00299	0.00306	0.01576	0.37900
0.77944	0.74045	0.77919	0.77784	0.76148	0.68886	0.63588	0.67970	0.70090	0.78349	0.28330	0.06920	0.00948	0.00247	0.00182	0.00333	0.00264	0.00463	0.00295	0.00303	0.01562	0.38000
0.78064	0.74175	0.78046	0.77907	0.76261	0.69006	0.63679	0.68099	0.70193	0.78460	0.27930	0.06580	0.00935	0.00246	0.00181	0.00329	0.00260	0.00457	0.00291	0.00300	0.01548	0.38100
0.78151	0.74271	0.78139	0.77997	0.76345	0.69095	0.63746	0.68193	0.70269	0.78550	0.27810	0.06440	0.00923	0.00245	0.00180	0.00325	0.00256	0.00450	0.00288	0.00297	0.01535	0.38200
0.78262	0.74393	0.78257	0.78111	0.76451	0.69207	0.63831	0.68313	0.70365	0.78664	0.27910	0.06400	0.00910	0.00244	0.00179	0.00321	0.00251	0.00444	0.00284	0.00295	0.01521	0.38300
0.78419	0.74565	0.78423	0.78273	0.76601	0.69366	0.63952	0.68482	0.70502	0.78825	0.27990	0.06370	0.00898	0.00243	0.00177	0.00317	0.00247	0.00437	0.00280	0.00292	0.01507	0.38500
0.78516	0.74671	0.78526	0.78373	0.76681	0.69451	0.64026	0.68587	0.70586	0.78925	0.27980	0.06320	0.00885	0.00242	0.00176	0.00313	0.00243	0.00431	0.00276	0.00289	0.01493	0.38600
0.78507	0.74660	0.78516	0.78363	0.76672	0.69442	0.64019	0.68577	0.70578	0.78915	0.27980	0.06280	0.00872	0.00241	0.00175	0.00309	0.00239	0.00424	0.00272	0.00286	0.01480	0.38600
0.78482	0.74634	0.78491	0.78338	0.76649	0.69417	0.64000	0.68551	0.70557	0.78890	0.28080	0.06290	0.00860	0.00239	0.00174	0.00305	0.00235	0.00418	0.00269	0.00283	0.01466	0.38500
0.78491	0.74642	0.78499	0.78346	0.76657	0.69425	0.64007	0.68560	0.70564	0.78898	0.28170	0.06290	0.00847	0.00238	0.00172	0.00301	0.00230	0.00411	0.00265	0.00280	0.01452	0.38600
0.78443	0.74591	0.78449	0.78298	0.76624	0.69376	0.63970	0.68508	0.70523	0.78850	0.28200	0.06280	0.00835	0.00237	0.00171	0.00297	0.00226	0.00405	0.00261	0.00277	0.01438	0.38500
0.78254	0.74383	0.78248	0.78103	0.76443	0.69198	0.63824	0.68304	0.70358	0.78655	0.28200	0.06260	0.00822	0.00236	0.00170	0.00293	0.00222	0.00398	0.00257	0.00274	0.01425	0.38300
0.77871	0.73965	0.77842	0.77709	0.76078	0.68812	0.63532	0.67892	0.70027	0.78273	0.28220	0.06250	0.00809	0.00235	0.00169	0.00289	0.00218	0.00392	0.00253	0.00271	0.01411	0.38000
0.77314	0.73356	0.77249	0.77135	0.75547	0.68253	0.63110	0.67294	0.69548	0.77696	0.28280	0.06260	0.00797	0.00234	0.00167	0.00285	0.00214	0.00385	0.00249	0.00268	0.01397	0.37400
0.76648	0.72629	0.76541	0.76449	0.74915	0.67588	0.62612	0.66585	0.68983	0.77005	0.28390	0.06280	0.00784	0.00233	0.00166	0.00281	0.00209	0.00379	0.00246	0.00266	0.01384	0.36800
0.75982	0.71912	0.75830	0.75762	0.74284	0.66928	0.62121	0.65880	0.68424	0.76313	0.28600	0.06350	0.00772	0.00232	0.00165	0.00277	0.00205	0.00372	0.00242	0.00263	0.01370	0.36200
0.75526	0.71412	0.75344	0.75278	0.73854	0.66480	0.61789	0.65400	0.68044	0.75839	0.28870	0.06440	0.00759	0.00230	0.00164	0.00273	0.00201	0.00366	0.00238	0.00260	0.01356	0.35800
0.75464	0.71344	0.75278	0.75215	0.73796	0.66419	0.61744	0.65335	0.67993	0.75775	0.29150	0.06550	0.00746	0.00229	0.00162	0.00269	0.00197	0.00359	0.00234	0.00257	0.01342	0.35800
0.75698	0.71601	0.75528	0.75469	0.74017	0.66649	0.61914	0.65581	0.68188	0.76019	0.29410	0.06650	0.00734	0.00228	0.00161	0.00265	0.00193	0.00353	0.00230	0.00254	0.01329	0.36000
0.75937	0.71862	0.75782	0.75715	0.74242	0.66884	0.62088	0.65832	0.68386	0.76266	0.29390	0.06650	0.00721	0.00227	0.00160	0.00261	0.00189	0.00346	0.00227	0.00251	0.01315	0.36200
0.76004	0.71936	0.75854	0.75784	0.74305	0.66950	0.62137	0.65903	0.68442	0.76336	0.28810	0.06420	0.00709	0.00226	0.00159	0.00257	0.00184	0.00340	0.00223	0.00248	0.01301	0.36200
0.76019	0.71953	0.75870	0.75800	0.74320	0.66966	0.62149	0.65919	0.68455	0.76352	0.27760	0.06050	0.00696	0.00225	0.00157	0.00253	0.00180	0.00333	0.00219	0.00245	0.01287	0.36300
0.76101	0.72042	0.75957	0.75884	0.74397	0.67046	0.62208	0.66005	0.68523	0.76437	0.26560	0.05660	0.00683	0.00224	0.00156	0.00249	0.00176	0.00327	0.00215	0.00242	0.01274	0.36300
0.76156	0.72103	0.76016	0.75941	0.74449	0.67100	0.62249	0.66063	0.68569	0.76494	0.25440	0.05350	0.00671	0.00222	0.00155	0.00245	0.00172	0.00320	0.00211	0.00239	0.01260	0.36400
0.76121	0.72065	0.75979	0.75906	0.74416	0.67066	0.62224	0.66027	0.68540	0.76458	0.24600	0.05130	0.00658	0.00221	0.00154	0.00241	0.00168	0.00314	0.00207	0.00237	0.01246	0.36300
0.76053	0.71990	0.75906	0.75835	0.74351	0.66999	0.62173	0.65955	0.68483	0.76387	0.23910	0.04960	0.00646	0.00220	0.00152	0.00237	0.00163	0.00307	0.00204	0.00234	0.01232	0.36300
0.75972	0.71901	0.75820	0.75751	0.74275	0.66919	0.62114	0.65869	0.68415	0.76303	0.23320	0.04820	0.00633	0.00219	0.00151	0.00233	0.00159	0.00301	0.00200	0.00231	0.01219	0.36200
0.75822	0.71737	0.75660	0.75597	0.74133	0.66771	0.62005	0.65711	0.68290	0.76147	0.22940	0.04730	0.00620	0.00218	0.00150	0.00229	0.00155	0.00294	0.00196	0.00228	0.01205	0.36100
0.75567	0.71458	0.75388	0.75334	0.73893	0.66521	0.61819	0.65444	0.68079	0.75883	0.22860	0.04690	0.00608	0.00217	0.00149	0.00225	0.00151	0.00288	0.00192	0.00225	0.01191	0.35900
0.75258	0.71119	0.75046	0.75004	0.73602	0.66217	0.61596	0.65119	0.67823	0.75561	0.22860	0.04670	0.00595	0.00216	0.00147	0.00221	0.00147	0.00281	0.00188	0.00222	0.01178	0.35600
0.74989	0.70839	0.74774	0.74741	0.73360	0.65966	0.61411	0.64851	0.67612	0.75294	0.22640	0.04610	0.00583	0.00214	0.00146	0.00217	0.00142	0.00275	0.00185	0.00219	0.01164	0.35400
0.74860	0.70698	0.74636	0.74608	0.73238	0.65840	0.61318	0.64716	0.67506	0.75160	0.22440	0.04550	0.00570	0.00213	0.00145	0.00213	0.00138	0.00268	0.00181	0.00216	0.01150	0.35300
0.74835	0.70670	0.74609	0.74581	0.73214	0.65815	0.61300	0.64689	0.67485	0.75133	0.22410	0.04530	0.00557	0.00212	0.00144	0.00209	0.00134	0.00262	0.00177	0.00213	0.01136	0.35200
0.74827	0.70661	0.74600	0.74573	0.73207	0.65807	0.61294	0.64681	0.67478	0.75124	0.22500	0.04530	0.00545	0.00211	0.00142	0.00205	0.00130	0.00255	0.00173	0.00210	0.01123	0.35200
0.74776	0.70605	0.74546	0.74521	0.73159	0.65758	0.61257	0.64628	0.67436	0.75072	0.22500	0.04520	0.00532	0.00210	0.00141	0.00201	0.00126	0.00249	0.00169	0.00208	0.01109	0.35200
0.74603	0.70416	0.74362	0.74342	0.72996	0.65589	0.61134	0.64447	0.67294	0.74891	0.22380	0.04480	0.00520	0.00209	0.00140	0.00197	0.00121	0.00242	0.00165	0.00205	0.01095	0.35000
0.74249	0.70028	0.73982	0.73976	0.72661	0.65243	0.60880	0.64077	0.67004	0.74509	0.22260	0.04440	0.00507	0.00208	0.00139	0.00193	0.00117	0.00236	0.00162	0.00202	0.01081	0.34700
